# 1-D Scan File created by LabVIEW Control Panel  2/24/2013  7:45:01 PM; Scan time 0 hrs 6 min 34 sec. 
#
# Beamline 20 ID
#
# User Comment:
# FOUND SAMPLE!!!
#
#
# Scan config: 
#                 E0: 11867.00 eV   221 points
#        Scan bounds:  -150.00 -20.00 20.00 186.31 (6.99 (k))
#       Scan step(s):  5.00 0.40 0.05
#  Integration times:  1.00 1.00 1.00    kwgt in EXAFS region: 0.0 
#
# Amplifier Sensitivities:
# PreKB: 50 pA/V  I0: 20 pA/V  IT: 20 pA/V  Cal-Diode: 2 nA/V  
#
# Analog Input Voltages at start/end of scan:
# PreSlit: 2.604/2.616  PreKB: 0.107/3.404  I0: 0.061/0.065  IT: 0.029/0.029  Cal-Diode: 1.504/1.511  
#
# XIA Filters:
# 1X: OUT 2X: IN 4X: OUT 8X: OUT
#
# Filters on XIA Shutter Unit:
# 1X: OUT 2X: OUT
#
# Mono Info:
# 
#
# ID Info:
# 
#
# Slit Info:
# ID I0 slits:  Center is at 250 (H), 2395 (V)   Size is 350 wide x 15 high
# IDB slits:  Center is at -1755 (H), 3385 (V)   Size is 2300 wide x 525 high
# IDC-KB slits:  Center is at -3200 (H), -1200 (V)   Size is 400 wide x 350 high
#
# Motor Positions:
# ADC KB Hor (20id:m43): -15680.000000 ADC KB Vert (20id:m44): 785.277475 ADC KB Focus (20id:m45): -542.600875 
#
# Detector Names/PVs:
# PreSlit/20id:scaler1_netA.B  Cal-Diode/20id:scaler1_netA.F  PreKB/20id:scaler1_netA.C  I0/20id:scaler1_netA.D  IT/20id:scaler1_netA.E  
# MERCURY:DT Corr I0 /20Mercury:DTCorrI0.VAL  MERCURY::TiKa/20Mercury:mca1.R0  MERCURY::CrKa/20Mercury:mca1.R1  MERCURY::CuKa/20Mercury:mca1.R2  MERCURY::ZnKa/20Mercury:mca1.R3  
# MERCURY::ZnKb/20Mercury:mca1.R4  MERCURY::HfLb/20Mercury:mca1.R5  MERCURY::FeKa/20Mercury:mca1.R6  MERCURY::Scatter/20Mercury:mca1.R7  MERCURY::total/20Mercury:mca1.R15  
# 20id:m53.RBV/20id:m53.RBV  20id:m55.RBV/20id:m55.RBV  20id:m42.RBV/20id:m42.RBV  MERCURY::CaKa/20Mercury:mca1.R9  MERCURY::AsKa/20Mercury:mca1.R8  
#
# Positioner names/Drive PVs/Readback PVs:
# Mono Energy (alt) */20id:monoE.VAL/20id:AtoE.VAL  Scaler preset time */20id:scaler1.TP/  ID Gap */20id:ID20ds:ScanEnergy.VAL/ID20ds:Energy  
# Here is a readable list of column headings:
#  1) Mono Energy (alt) *  11) MERCURY::CrKa        21) 20id:m42.RBV         
#  2) Scaler preset time * 12) MERCURY::CuKa        22) MERCURY::CaKa        
#  3) ID Gap *             13) MERCURY::ZnKa        23) MERCURY::AsKa        
#  4) PreSlit              14) MERCURY::ZnKb        
#  5) Cal-Diode            15) MERCURY::HfLb        
#  6) PreKB                16) MERCURY::FeKa        
#  7) I0                   17) MERCURY::Scatter     
#  8) IT                   18) MERCURY::total       
#  9) MERCURY:DT Corr I0   19) 20id:m53.RBV         
# 10) MERCURY::TiKa        20) 20id:m55.RBV         
#
# Column Headings:
#Mono Energy (alt) *  Scaler preset time * ID Gap *             PreSlit              Cal-Diode            PreKB                I0                   IT                   MERCURY:DT Corr I0   MERCURY::TiKa        MERCURY::CrKa        MERCURY::CuKa        MERCURY::ZnKa        MERCURY::ZnKb        MERCURY::HfLb        MERCURY::FeKa        MERCURY::Scatter     MERCURY::total       20id:m53.RBV         20id:m55.RBV         20id:m42.RBV         MERCURY::CaKa        MERCURY::AsKa        
       11717.01014875            1.00000000           11.86685705       163263.00000000       103055.60156250       203355.59375000           11.39999962          -29.20000076       201575.62500000           17.00000000          222.00000000           21.00000000          131.00000000           25.00000000           20.00000000         3034.00000000           38.00000000         4474.00000000          -15.00000000          -15.00000000           28.07609940           15.00000000           17.00000000 
       11721.98019030            1.00000000           11.87186718       163924.00000000       103595.60156250       195563.59375000           -5.59999990          -35.20000076       193885.17187500           22.00000000          215.00000000           15.00000000          145.00000000           26.00000000           34.00000000         2908.00000000           46.00000000         4385.00000000          -15.00000000          -15.00000000           28.07609940           14.00000000           14.00000000 
       11727.00236261            1.00000000           11.87677860       163022.00000000       103185.60156250       196203.59375000           14.39999962          -40.20000076       194524.93750000           25.00000000          209.00000000           15.00000000          137.00000000           23.00000000           31.00000000         2944.00000000           37.00000000         4371.00000000          -15.00000000          -15.00000000           28.07609940            9.00000000           16.00000000 
       11731.98101079            1.00000000           11.88194180       162142.00000000       102689.60156250       196445.59375000          -16.60000038          -11.19999981       194745.29687500           20.00000000          228.00000000           20.00000000          160.00000000           36.00000000           32.00000000         2965.00000000           39.00000000         4423.00000000          -15.00000000          -15.00000000           28.07609940            9.00000000           30.00000000 
       11737.01188372            1.00000000           11.88696480       161764.00000000       102664.60156250       195129.59375000           25.39999962          -50.20000076       193454.89062500           17.00000000          211.00000000           15.00000000          148.00000000           25.00000000           30.00000000         2936.00000000           34.00000000         4385.00000000          -15.00000000          -15.00000000           28.07609940           18.00000000           26.00000000 
       11741.99916081            1.00000000           11.89202070       160862.00000000       102135.60156250       195605.59375000          -11.60000038           -2.20000005       193953.42187500           18.00000000          210.00000000           16.00000000          143.00000000           35.00000000           38.00000000         2856.00000000           45.00000000         4314.00000000          -15.00000000          -15.00000000           28.07609940           16.00000000           22.00000000 
       11746.99074003            1.00000000           11.89693880       160681.00000000       102217.60156250       193404.59375000          -19.60000038          -14.19999981       191793.65625000           21.00000000          224.00000000           15.00000000          125.00000000           31.00000000           30.00000000         2792.00000000           29.00000000         4253.00000000          -15.00000000          -15.00000000           28.07609940           10.00000000           22.00000000 
       11751.98662692            1.00000000           11.90180397       160563.00000000       102279.60156250       191561.59375000           52.40000153          -20.20000076       189994.31250000           16.00000000          232.00000000           16.00000000          134.00000000           28.00000000           28.00000000         2763.00000000           40.00000000         4176.00000000          -15.00000000          -15.00000000           28.07609940           12.00000000           30.00000000 
       11756.98682704            1.00000000           11.90683079       159360.00000000       101690.60156250       193933.59375000           19.39999962          -19.20000076       192264.32812500           15.00000000          222.00000000           16.00000000          125.00000000           26.00000000           29.00000000         2957.00000000           49.00000000         4398.00000000          -15.00000000          -15.00000000           28.07609940            7.00000000           35.00000000 
       11761.99134593            1.00000000           11.91193533       158968.00000000       101525.60156250       192448.59375000           17.39999962          -27.20000076       190831.57812500           25.00000000          227.00000000           12.00000000          147.00000000           27.00000000           42.00000000         2822.00000000           34.00000000         4291.00000000          -15.00000000          -15.00000000           28.07609940           12.00000000           40.00000000 
       11767.00018918            1.00000000           11.91711378       157937.00000000       101056.60156250       192477.59375000            9.39999962           24.79999924       190796.15625000           19.00000000          200.00000000           20.00000000          126.00000000           28.00000000           34.00000000         3009.00000000           46.00000000         4465.00000000          -15.00000000          -15.00000000           28.07609940           17.00000000           28.00000000 
       11772.01336236            1.00000000           11.92193985       157743.00000000       101007.60156250       189453.59375000           27.39999962          -16.20000076       187871.92187500           22.00000000          188.00000000            9.00000000          126.00000000           32.00000000           33.00000000         2850.00000000           42.00000000         4263.00000000          -15.00000000          -15.00000000           28.07609940           12.00000000           42.00000000 
       11776.98260512            1.00000000           11.92692900       156642.00000000       100427.60156250       191303.59375000            7.40000010           -4.19999981       189674.56250000           17.00000000          159.00000000           11.00000000          159.00000000           26.00000000           28.00000000         2922.00000000           44.00000000         4350.00000000          -15.00000000          -15.00000000           28.07609940           15.00000000           54.00000000 
       11782.00441317            1.00000000           11.93207836       157222.00000000       100936.60156250       190162.59375000            7.40000010          -25.20000076       188505.75000000           16.00000000          193.00000000           13.00000000          127.00000000           34.00000000           25.00000000         2984.00000000           36.00000000         4453.00000000          -15.00000000          -15.00000000           28.07609940           10.00000000           42.00000000 
       11786.98221878            1.00000000           11.93696165       156650.00000000       100744.60156250       189976.59375000           15.39999962          -43.20000076       188311.54687500           16.00000000          184.00000000           19.00000000          145.00000000           33.00000000           38.00000000         3011.00000000           57.00000000         4480.00000000          -15.00000000          -15.00000000           28.07609940           13.00000000           39.00000000 
       11792.01268392            1.00000000           11.94204760       156053.00000000       100519.60156250       189432.59375000            6.40000010          -47.20000076       187775.21875000           17.00000000          183.00000000           21.00000000          133.00000000           25.00000000           28.00000000         2958.00000000           45.00000000         4472.00000000          -15.00000000          -15.00000000           28.07609940           18.00000000           56.00000000 
       11796.99907441            1.00000000           11.94703913       155399.00000000       100218.60156250       189891.59375000           57.40000153          -17.20000076       188226.92187500           18.00000000          209.00000000           12.00000000          128.00000000           26.00000000           36.00000000         3021.00000000           46.00000000         4481.00000000          -15.00000000          -15.00000000           28.07609940            9.00000000           66.00000000 
       11801.98974484            1.00000000           11.95189428       154310.00000000        99565.60156250       190735.59375000           24.39999962          -16.20000076       189033.21875000           16.00000000          179.00000000           18.00000000          147.00000000           37.00000000           45.00000000         3024.00000000           38.00000000         4564.00000000          -15.00000000          -15.00000000           28.07609940           12.00000000           76.00000000 
       11806.98470069            1.00000000           11.95665455       154677.00000000        99906.60156250       191801.59375000           30.39999962          -16.20000076       190134.87500000           15.00000000          210.00000000           12.00000000          132.00000000           25.00000000           31.00000000         2972.00000000           48.00000000         4441.00000000          -15.00000000          -15.00000000           28.07609940            7.00000000           85.00000000 
       11811.98394747            1.00000000           11.96182823       154909.00000000        99929.60156250       190825.59375000           10.39999962          -13.19999981       189128.26562500           23.00000000          188.00000000           10.00000000          149.00000000           33.00000000           47.00000000         3014.00000000           76.00000000         4548.00000000          -15.00000000          -15.00000000           28.07609940            7.00000000           85.00000000 
       11816.98749067            1.00000000           11.96686363       153397.00000000        98719.60156250       192125.59375000            1.39999998          -40.20000076       190404.57812500           19.00000000          200.00000000           12.00000000          144.00000000           32.00000000           29.00000000         3035.00000000           51.00000000         4581.00000000          -15.00000000          -15.00000000           28.07609940            9.00000000           96.00000000 
       11821.99533582            1.00000000           11.97197294       153099.00000000        98907.60156250       191434.59375000           18.39999962          -45.20000076       189716.09375000           28.00000000          193.00000000           20.00000000          150.00000000           27.00000000           29.00000000         2954.00000000           39.00000000         4591.00000000          -15.00000000          -15.00000000           28.07609940           11.00000000          137.00000000 
       11827.00748843            1.00000000           11.97707224       153262.00000000        99531.60156250       183658.59375000          -16.60000038          -17.20000076       182051.37500000           16.00000000          188.00000000           14.00000000          150.00000000           20.00000000           37.00000000         2933.00000000           66.00000000         4473.00000000          -15.00000000          -15.00000000           28.07609940           17.00000000          123.00000000 
       11832.02395403            1.00000000           11.98216057       152161.00000000        99052.60156250       182753.59375000            4.40000010          -28.20000076       181113.71875000           17.00000000          196.00000000           18.00000000          127.00000000           16.00000000           30.00000000         3055.00000000           51.00000000         4589.00000000          -15.00000000          -15.00000000           28.07609940            7.00000000          158.00000000 
       11836.99597192            1.00000000           11.98707199       151118.00000000        98503.60156250       180590.59375000           -1.60000002          -41.20000076       178977.39062500           22.00000000          212.00000000           21.00000000          145.00000000           27.00000000           38.00000000         2950.00000000           70.00000000         4568.00000000          -15.00000000          -15.00000000           28.07609940           12.00000000          190.00000000 
       11842.02103815            1.00000000           11.99205637       150751.00000000        98389.60156250       177198.59375000            8.39999962          -26.20000076       175643.50000000           22.00000000          171.00000000           19.00000000          159.00000000           22.00000000           46.00000000         2832.00000000           69.00000000         4486.00000000          -15.00000000          -15.00000000           28.07609940           16.00000000          249.00000000 
       11847.00158406            1.00000000           11.99703169       150255.00000000        98100.60156250       176588.59375000           -8.60000038          -57.20000076       175024.65625000           17.00000000          156.00000000           18.00000000          114.00000000           35.00000000           34.00000000         2888.00000000           93.00000000         4528.00000000          -15.00000000          -15.00000000           28.07609940           12.00000000          281.00000000 
       11847.39239484            1.00000000           11.99736309       150405.00000000        98281.60156250       177340.59375000          -14.60000038          -35.20000076       175744.54687500           21.00000000          179.00000000           11.00000000          136.00000000           21.00000000           30.00000000         2932.00000000           70.00000000         4603.00000000          -15.00000000          -15.00000000           28.07609940           15.00000000          283.00000000 
       11847.78323177            1.00000000           11.99748802       150127.00000000        98099.60156250       176744.59375000           -6.59999990          -39.20000076       175172.51562500           21.00000000          163.00000000           19.00000000          133.00000000           19.00000000           31.00000000         2887.00000000           82.00000000         4548.00000000          -15.00000000          -15.00000000           28.07609940           13.00000000          274.00000000 
       11848.22295459            1.00000000           11.99798393       150602.00000000        98446.60156250       175472.59375000          -27.60000038          -12.19999981       173890.00000000           11.00000000          157.00000000           17.00000000          140.00000000           29.00000000           36.00000000         2912.00000000           79.00000000         4613.00000000          -15.00000000          -15.00000000           28.07609940            8.00000000          287.00000000 
       11848.61384711            1.00000000           11.99856329       150276.00000000        98207.60156250       174389.59375000           14.39999962          -58.20000076       172807.43750000           20.00000000          158.00000000           14.00000000          127.00000000           36.00000000           35.00000000         2882.00000000           97.00000000         4641.00000000          -15.00000000          -15.00000000           28.07609940           10.00000000          279.00000000 
       11849.00476579            1.00000000           11.99889517       150321.00000000        98244.60156250       175207.59375000           -1.60000002          -28.20000076       173646.50000000           15.00000000          169.00000000           14.00000000          142.00000000           28.00000000           41.00000000         2822.00000000           71.00000000         4556.00000000          -15.00000000          -15.00000000           28.07609940           13.00000000          326.00000000 
       11849.39571064            1.00000000           11.99922657       149619.00000000        97754.60156250       176644.59375000           14.39999962          -34.20000076       175087.93750000           14.00000000          180.00000000           15.00000000          136.00000000           25.00000000           34.00000000         2811.00000000           92.00000000         4505.00000000          -15.00000000          -15.00000000           28.07609940           13.00000000          336.00000000 
       11849.78668165            1.00000000           11.99968100       150351.00000000        98356.60156250       173378.59375000            1.39999998          -30.20000076       171853.04687500           11.00000000          162.00000000           19.00000000          143.00000000           25.00000000           38.00000000         2822.00000000           95.00000000         4498.00000000          -15.00000000          -15.00000000           28.07609940           11.00000000          336.00000000 
       11850.17767884            1.00000000           11.99988794       150019.00000000        98096.60156250       174479.59375000           23.39999962          -67.19999695       172926.65625000           21.00000000          185.00000000           10.00000000          126.00000000           26.00000000           24.00000000         2744.00000000           96.00000000         4551.00000000          -15.00000000          -15.00000000           28.07609940           10.00000000          377.00000000 
       11850.61758196            1.00000000           12.00046635       150090.00000000        98206.60156250       173344.59375000            2.40000010          -56.20000076       171838.59375000           16.00000000          165.00000000            9.00000000          129.00000000           26.00000000           33.00000000         2731.00000000           99.00000000         4440.00000000          -15.00000000          -15.00000000           28.07609940           14.00000000          355.00000000 
       11851.00863477            1.00000000           12.00088120       149890.00000000        98053.60156250       173867.59375000           -6.59999990          -32.20000076       172343.06250000           19.00000000          178.00000000           10.00000000          124.00000000           29.00000000           35.00000000         2774.00000000           84.00000000         4482.00000000          -15.00000000          -15.00000000           28.07609940           13.00000000          382.00000000 
       11851.39971375            1.00000000           12.00108719       149717.00000000        97950.60156250       174658.59375000            6.40000010          -69.19999695       173140.17187500           12.00000000          182.00000000           16.00000000          127.00000000           43.00000000           43.00000000         2666.00000000           91.00000000         4443.00000000          -15.00000000          -15.00000000           28.07609940           10.00000000          409.00000000 
       11851.79081892            1.00000000           12.00170660       149789.00000000        97973.60156250       173474.59375000            6.40000010          -69.19999695       172002.03125000           17.00000000          176.00000000           16.00000000          138.00000000           25.00000000           42.00000000         2662.00000000           92.00000000         4336.00000000          -15.00000000          -15.00000000           28.07609940           16.00000000          347.00000000 
       11852.18195027            1.00000000           12.00191498       149810.00000000        97993.60156250       174796.59375000           -2.59999990          -18.20000076       173263.57812500           13.00000000          165.00000000           10.00000000          121.00000000           37.00000000           35.00000000         2715.00000000           88.00000000         4483.00000000          -15.00000000          -15.00000000           28.07609940           20.00000000          391.00000000 
       11852.62200434            1.00000000           12.00249243       149864.00000000        98033.60156250       174038.59375000            4.40000010          -64.19999695       172486.92187500           19.00000000          174.00000000           12.00000000          137.00000000           35.00000000           29.00000000         2820.00000000           96.00000000         4559.00000000          -15.00000000          -15.00000000           28.07609940           12.00000000          369.00000000 
       11853.01319135            1.00000000           12.00273991       149602.00000000        97906.60156250       175543.59375000           12.39999962          -34.20000076       174023.20312500           18.00000000          160.00000000           17.00000000          119.00000000           28.00000000           27.00000000         2644.00000000          106.00000000         4426.00000000          -15.00000000          -15.00000000           28.07609940           13.00000000          393.00000000 
       11853.40440454            1.00000000           12.00327778       149572.00000000        97885.60156250       174076.59375000           14.39999962          -54.20000076       172591.92187500           13.00000000          175.00000000           17.00000000          144.00000000           22.00000000           35.00000000         2639.00000000           92.00000000         4357.00000000          -15.00000000          -15.00000000           28.07609940            9.00000000          424.00000000 
       11853.79564393            1.00000000           12.00360823       149212.00000000        97686.60156250       175780.59375000           -5.59999990          -47.20000076       174251.07812500           15.00000000          172.00000000           20.00000000          143.00000000           32.00000000           37.00000000         2635.00000000          101.00000000         4447.00000000          -15.00000000          -15.00000000           28.07609940           15.00000000          410.00000000 
       11854.18690952            1.00000000           12.00393724       149625.00000000        97969.60156250       174171.59375000          -14.60000038          -49.20000076       172651.07812500           17.00000000          195.00000000           10.00000000          150.00000000           36.00000000           34.00000000         2573.00000000           85.00000000         4462.00000000          -15.00000000          -15.00000000           28.07609940           13.00000000          435.00000000 
       11854.57820130            1.00000000           12.00455761       149758.00000000        98062.60156250       173691.59375000            3.40000010          -54.20000076       172168.60937500           24.00000000          177.00000000            9.00000000          124.00000000           38.00000000           36.00000000         2611.00000000           92.00000000         4482.00000000          -15.00000000          -15.00000000           28.07609940           13.00000000          472.00000000 
       11855.01843588            1.00000000           12.00472260       149434.00000000        97849.60156250       174229.59375000           10.39999962          -39.20000076       172709.56250000           15.00000000          191.00000000           10.00000000          140.00000000           22.00000000           39.00000000         2570.00000000          106.00000000         4459.00000000          -15.00000000          -15.00000000           28.07609940           19.00000000          481.00000000 
       11855.40978335            1.00000000           12.00521851       149580.00000000        97892.60156250       172899.59375000           18.39999962          -16.20000076       171380.90625000           11.00000000          166.00000000            9.00000000          112.00000000           25.00000000           23.00000000         2704.00000000           98.00000000         4490.00000000          -15.00000000          -15.00000000           28.07609940           12.00000000          484.00000000 
       11855.80115703            1.00000000           12.00567245       149284.00000000        97810.60156250       172564.59375000           17.39999962            2.79999995       171028.37500000           15.00000000          182.00000000           20.00000000          126.00000000           22.00000000           19.00000000         2551.00000000           97.00000000         4552.00000000          -15.00000000          -15.00000000           28.07609940           14.00000000          539.00000000 
       11856.19255692            1.00000000           12.00604439       149006.00000000        97523.60156250       172527.59375000            5.40000010            8.80000019       170987.40625000           16.00000000          181.00000000           13.00000000          117.00000000           25.00000000           29.00000000         2645.00000000          110.00000000         4565.00000000          -15.00000000          -15.00000000           28.07609940           20.00000000          525.00000000 
       11856.58398303            1.00000000           12.00657940       149976.00000000        98228.60156250       170466.59375000            1.39999998          -24.20000076       168964.70312500           14.00000000          194.00000000           15.00000000          111.00000000           20.00000000           28.00000000         2599.00000000          109.00000000         4504.00000000          -15.00000000          -15.00000000           28.07609940           10.00000000          541.00000000 
       11857.02436873            1.00000000           12.00686836       149371.00000000        97857.60156250       171114.59375000           -8.60000038          -12.19999981       169621.40625000           12.00000000          204.00000000           10.00000000          127.00000000           31.00000000           30.00000000         2569.00000000          121.00000000         4460.00000000          -15.00000000          -15.00000000           28.07609940            7.00000000          539.00000000 
       11857.41585055            1.00000000           12.00715685       149157.00000000        97704.60156250       172003.59375000            6.40000010          -21.20000076       170471.37500000           20.00000000          183.00000000           23.00000000          139.00000000           33.00000000           33.00000000         2548.00000000          122.00000000         4555.00000000          -15.00000000          -15.00000000           28.07609940           12.00000000          595.00000000 
       11857.80735858            1.00000000           12.00752926       149233.00000000        97815.60156250       170604.59375000          -25.60000038           15.80000019       169061.67187500           13.00000000          176.00000000           11.00000000          128.00000000           27.00000000           30.00000000         2631.00000000          125.00000000         4626.00000000          -15.00000000          -15.00000000           28.07609940           15.00000000          598.00000000 
       11858.19889285            1.00000000           12.00806475       148938.00000000        97562.60156250       171949.59375000           -4.59999990           -9.19999981       170396.81250000           11.00000000          181.00000000           15.00000000          138.00000000           30.00000000           35.00000000         2612.00000000          114.00000000         4619.00000000          -15.00000000          -15.00000000           28.07609940           10.00000000          641.00000000 
       11858.59045334            1.00000000           12.00827026       149175.00000000        97744.60156250       170826.59375000           -0.60000002          -32.20000076       169350.65625000           17.00000000          176.00000000           13.00000000          143.00000000           28.00000000           40.00000000         2481.00000000          106.00000000         4415.00000000          -15.00000000          -15.00000000           28.07609940           13.00000000          615.00000000 
       11858.98204005            1.00000000           12.00901270       149334.00000000        97852.60156250       170478.59375000           12.39999962          -38.20000076       168997.17187500           13.00000000          184.00000000           22.00000000          152.00000000           28.00000000           47.00000000         2381.00000000          121.00000000         4441.00000000          -15.00000000          -15.00000000           28.07609940           11.00000000          711.00000000 
       11859.42260647            1.00000000           12.00917721       149496.00000000        97950.60156250       169477.59375000            5.40000010          -25.20000076       168040.26562500           14.00000000          191.00000000           17.00000000          124.00000000           28.00000000           31.00000000         2297.00000000          121.00000000         4332.00000000          -15.00000000          -15.00000000           28.07609940           13.00000000          737.00000000 
       11859.81424893            1.00000000           12.00975418       148801.00000000        97497.60156250       170827.59375000           18.39999962          -14.19999981       169318.28125000           18.00000000          192.00000000           15.00000000          115.00000000           28.00000000           38.00000000         2299.00000000          150.00000000         4517.00000000          -15.00000000          -15.00000000           28.07609940            9.00000000          850.00000000 
       11860.20591764            1.00000000           12.00996017       148573.00000000        97361.60156250       171922.59375000            2.40000010          -22.20000076       170365.78125000           10.00000000          216.00000000           18.00000000          124.00000000           27.00000000           34.00000000         2391.00000000          125.00000000         4632.00000000          -15.00000000          -15.00000000           28.07609940           13.00000000          836.00000000 
       11860.59761258            1.00000000           12.01049519       148470.00000000        97354.60156250       170472.59375000           48.40000153          -38.20000076       168873.21875000           14.00000000          176.00000000           19.00000000          144.00000000           26.00000000           25.00000000         2464.00000000          155.00000000         4803.00000000          -15.00000000          -15.00000000           28.07609940            8.00000000          910.00000000 
       11860.98933377            1.00000000           12.01082516       148757.00000000        97561.60156250       169809.59375000           -4.59999990           -8.19999981       168202.50000000           13.00000000          208.00000000           16.00000000          159.00000000           32.00000000           36.00000000         2396.00000000          159.00000000         4846.00000000          -15.00000000          -15.00000000           28.07609940           15.00000000          941.00000000 
       11861.38108120            1.00000000           12.01131821       148910.00000000        97639.60156250       170023.59375000           24.39999962          -11.19999981       168404.73437500           13.00000000          192.00000000           10.00000000          127.00000000           24.00000000           31.00000000         2477.00000000          147.00000000         4876.00000000          -15.00000000          -15.00000000           28.07609940           14.00000000          949.00000000 
       11861.82182844            1.00000000           12.01152563       148523.00000000        97375.60156250       170296.59375000           34.40000153           -7.19999981       168584.60937500           18.00000000          193.00000000           15.00000000          122.00000000           25.00000000           34.00000000         2555.00000000          194.00000000         5155.00000000          -15.00000000          -15.00000000           28.07609940            8.00000000         1104.00000000 
       11862.21363165            1.00000000           12.01222515       148638.00000000        97485.60156250       170000.59375000           24.39999962          -28.20000076       168316.82812500           15.00000000          190.00000000           16.00000000          146.00000000           37.00000000           40.00000000         2485.00000000          194.00000000         5077.00000000          -15.00000000          -15.00000000           28.07609940           16.00000000         1088.00000000 
       11862.60546112            1.00000000           12.01251316       148240.00000000        97188.60156250       170178.59375000           25.39999962          -29.20000076       168479.12500000           14.00000000          188.00000000           16.00000000          134.00000000           24.00000000           39.00000000         2548.00000000          164.00000000         5120.00000000          -15.00000000          -15.00000000           28.07609940           12.00000000         1088.00000000 
       11862.99731684            1.00000000           12.01288414       148621.00000000        97463.60156250       168834.59375000           18.39999962           -5.19999981       167168.48437500           11.00000000          181.00000000           18.00000000          141.00000000           28.00000000           37.00000000         2349.00000000          193.00000000         5058.00000000          -15.00000000          -15.00000000           28.07609940           12.00000000         1214.00000000 
       11863.38919882            1.00000000           12.01329422       148619.00000000        97505.60156250       168914.59375000           29.39999962            8.80000019       167186.29687500           14.00000000          188.00000000           17.00000000          118.00000000           29.00000000           31.00000000         2420.00000000          201.00000000         5249.00000000          -15.00000000          -15.00000000           28.07609940           11.00000000         1256.00000000 
       11863.78110707            1.00000000           12.01341820       148624.00000000        97520.60156250       168791.59375000           37.40000153          -24.20000076       166994.98437500           21.00000000          180.00000000           18.00000000          122.00000000           26.00000000           39.00000000         2514.00000000          212.00000000         5466.00000000          -15.00000000          -15.00000000           28.07609940           10.00000000         1405.00000000 
       11864.22203524            1.00000000           12.01415730       147861.00000000        97009.60156250       169917.59375000           13.39999962          -22.20000076       168064.53125000           15.00000000          216.00000000           20.00000000          147.00000000           29.00000000           45.00000000         2477.00000000          226.00000000         5604.00000000          -15.00000000          -15.00000000           28.07609940           12.00000000         1555.00000000 
       11864.61399930            1.00000000           12.01428127       148233.00000000        97291.60156250       169747.59375000           39.40000153          -13.19999981       167867.76562500           10.00000000          194.00000000           10.00000000          120.00000000           32.00000000           35.00000000         2472.00000000          264.00000000         5693.00000000          -15.00000000          -15.00000000           28.07609940            8.00000000         1602.00000000 
       11865.00598963            1.00000000           12.01493979       148039.00000000        97191.60156250       168689.59375000           31.39999962          -19.20000076       166777.42187500           13.00000000          177.00000000           20.00000000          135.00000000           28.00000000           35.00000000         2331.00000000          261.00000000         5831.00000000          -15.00000000          -15.00000000           28.07609940           14.00000000         1882.00000000 
       11865.39800623            1.00000000           12.01510334       147523.00000000        96861.60156250       171443.59375000           23.39999962          -13.19999981       169384.95312500           19.00000000          197.00000000           12.00000000          128.00000000           29.00000000           41.00000000         2369.00000000          300.00000000         6187.00000000          -15.00000000          -15.00000000           28.07609940           19.00000000         2118.00000000 
       11865.79004911            1.00000000           12.01580286       148331.00000000        97324.60156250       167370.59375000           17.39999962          -14.19999981       165270.40625000           20.00000000          206.00000000           25.00000000          119.00000000           26.00000000           28.00000000         2439.00000000          316.00000000         6474.00000000          -15.00000000          -15.00000000           28.07609940            7.00000000         2278.00000000 
       11866.18211826            1.00000000           12.01592541       147910.00000000        97075.60156250       168348.59375000           14.39999962            1.79999995       166030.29687500           23.00000000          189.00000000           14.00000000          123.00000000           29.00000000           43.00000000         2424.00000000          374.00000000         7126.00000000          -15.00000000          -15.00000000           28.07609940            9.00000000         2768.00000000 
       11866.62322748            1.00000000           12.01641846       147026.00000000        96501.60156250       170484.59375000           23.39999962          -40.20000076       167964.17187500           13.00000000          171.00000000           22.00000000          120.00000000           26.00000000           36.00000000         2481.00000000          487.00000000         7669.00000000          -15.00000000          -15.00000000           28.07609940           11.00000000         3194.00000000 
       11867.01535248            1.00000000           12.01687098       147440.00000000        96854.60156250       169837.59375000          -23.60000038          -12.19999981       167095.12500000           14.00000000          164.00000000           23.00000000          130.00000000           30.00000000           33.00000000         2504.00000000          539.00000000         8404.00000000          -15.00000000          -15.00000000           28.07609940           13.00000000         3709.00000000 
       11867.40750377            1.00000000           12.01715946       147320.00000000        96786.60156250       167755.59375000            5.40000010          -47.20000076       164770.65625000           15.00000000          202.00000000           17.00000000          119.00000000           37.00000000           45.00000000         2627.00000000          638.00000000         9297.00000000          -15.00000000          -15.00000000           28.07609940           10.00000000         4282.00000000 
       11867.79968135            1.00000000           12.01773357       147308.00000000        96715.60156250       167071.59375000           29.39999962          -38.20000076       163843.23437500           21.00000000          149.00000000           23.00000000          124.00000000           37.00000000           37.00000000         2581.00000000          739.00000000        10133.00000000          -15.00000000          -15.00000000           28.07609940           14.00000000         5015.00000000 
       11868.19188522            1.00000000           12.01789665       147269.00000000        96659.60156250       167068.59375000           11.39999962          -16.20000076       163666.09375000           29.00000000          161.00000000           24.00000000          108.00000000           40.00000000           40.00000000         2490.00000000          833.00000000        10706.00000000          -15.00000000          -15.00000000           28.07609940           15.00000000         5543.00000000 
       11868.58411539            1.00000000           12.01859570       145666.00000000        95648.60156250       167448.59375000           -3.59999990          -30.20000076       163563.03125000           22.00000000          159.00000000           32.00000000          137.00000000           58.00000000           49.00000000         2594.00000000          929.00000000        12279.00000000          -15.00000000          -15.00000000           28.07609940           11.00000000         6707.00000000 
       11868.97637185            1.00000000           12.01884222       145269.00000000        95400.60156250       166874.59375000            4.40000010            1.79999995       162744.23437500           23.00000000          142.00000000           20.00000000          146.00000000           50.00000000           59.00000000         2529.00000000         1014.00000000        13144.00000000          -15.00000000          -15.00000000           28.07609940           18.00000000         7457.00000000 
       11869.41769180            1.00000000           12.01916981       145036.00000000        95281.60156250       165661.59375000          -11.60000038          -37.20000076       160860.00000000           27.00000000          167.00000000           33.00000000          141.00000000           60.00000000           52.00000000         2567.00000000         1273.00000000        15539.00000000          -15.00000000          -15.00000000           28.07609940           21.00000000         9371.00000000 
       11869.81000415            1.00000000           12.01953983       145819.00000000        95832.60156250       164565.59375000           23.39999962          -28.20000076       159151.45312500           27.00000000          136.00000000           26.00000000          175.00000000           64.00000000           72.00000000         2610.00000000         1459.00000000        17789.00000000          -15.00000000          -15.00000000           28.07609940           21.00000000        11074.00000000 
       11870.20234281            1.00000000           12.01999044       146207.00000000        96083.60156250       164572.59375000           19.39999962          -38.20000076       158552.20312500           27.00000000          154.00000000           32.00000000          147.00000000           65.00000000           62.00000000         2478.00000000         1774.00000000        19934.00000000          -15.00000000          -15.00000000           28.07609940           14.00000000        12874.00000000 
       11870.59470777            1.00000000           12.02052212       147080.00000000        96679.60156250       166846.59375000           14.39999962           33.79999924       160080.04687500           26.00000000          160.00000000           48.00000000          194.00000000           64.00000000           97.00000000         2534.00000000         1982.00000000        22278.00000000          -15.00000000          -15.00000000           28.07609940           22.00000000        14712.00000000 
       11870.98709904            1.00000000           12.02089262       147486.00000000        96998.60156250       167793.59375000          -11.60000038          -35.20000076       160291.48437500           22.00000000          154.00000000           47.00000000          193.00000000           84.00000000           95.00000000         2412.00000000         2154.00000000        24759.00000000          -15.00000000          -15.00000000           28.07609940           19.00000000        16821.00000000 
       11871.37951663            1.00000000           12.02122021       147854.00000000        97165.60156250       169694.59375000           -5.59999990          -25.20000076       161626.14062500           36.00000000          179.00000000           50.00000000          168.00000000           87.00000000           85.00000000         2460.00000000         2521.00000000        26469.00000000          -15.00000000          -15.00000000           28.07609940           28.00000000        17977.00000000 
       11871.82101787            1.00000000           12.02150726       147373.00000000        96861.60156250       168211.59375000           11.39999962          -46.20000076       159953.62500000           35.00000000          162.00000000           54.00000000          167.00000000           79.00000000           84.00000000         2356.00000000         2492.00000000        27406.00000000          -15.00000000          -15.00000000           28.07609940           22.00000000        18925.00000000 
       11872.21349138            1.00000000           12.02212286       147335.00000000        96884.60156250       168273.59375000            7.40000010          -31.20000076       159575.73437500           27.00000000          181.00000000           52.00000000          163.00000000           97.00000000           85.00000000         2444.00000000         2617.00000000        28987.00000000          -15.00000000          -15.00000000           28.07609940           21.00000000        20091.00000000 
       11872.60599121            1.00000000           12.02228642       146942.00000000        96545.60156250       170574.59375000           -4.59999990          -28.20000076       160926.39062500           39.00000000          171.00000000           70.00000000          203.00000000          113.00000000          107.00000000         2393.00000000         2987.00000000        31978.00000000          -15.00000000          -15.00000000           28.07609940           37.00000000        22363.00000000 
       11872.99851736            1.00000000           12.02290154       147169.00000000        96685.60156250       168088.59375000           16.39999962          -50.20000076       157748.60937500           39.00000000          179.00000000           67.00000000          194.00000000          108.00000000          100.00000000         2450.00000000         3206.00000000        35042.00000000          -15.00000000          -15.00000000           28.07609940           31.00000000        24909.00000000 
       11873.39106984            1.00000000           12.02310658       147415.00000000        96949.60156250       168380.59375000            6.40000010          -15.19999981       157087.59375000           42.00000000          158.00000000           54.00000000          201.00000000          102.00000000          103.00000000         2327.00000000         3566.00000000        38500.00000000          -15.00000000          -15.00000000           28.07609940           45.00000000        27595.00000000 
       11873.78364865            1.00000000           12.02363873       147423.00000000        96928.60156250       167615.59375000           -2.59999990          -45.20000076       155248.60937500           47.00000000          191.00000000           90.00000000          212.00000000          109.00000000          120.00000000         2265.00000000         4095.00000000        42699.00000000          -15.00000000          -15.00000000           28.07609940           27.00000000        31004.00000000 
       11874.17625379            1.00000000           12.02404928       147501.00000000        96960.60156250       167776.59375000            1.39999998          -54.20000076       154671.20312500           50.00000000          182.00000000           89.00000000          207.00000000          129.00000000          122.00000000         2269.00000000         4306.00000000        45411.00000000          -15.00000000          -15.00000000           28.07609940           29.00000000        33019.00000000 
       11874.61796605            1.00000000           12.02437639       147042.00000000        96675.60156250       168438.59375000           10.39999962          -25.20000076       154618.32812500           48.00000000          157.00000000           73.00000000          273.00000000          125.00000000          166.00000000         2195.00000000         4611.00000000        47875.00000000          -15.00000000          -15.00000000           28.07609940           27.00000000        35109.00000000 
       11875.01062715            1.00000000           12.02478600       146508.00000000        96368.60156250       169709.59375000           -3.59999990          -40.20000076       155515.17187500           39.00000000          176.00000000           94.00000000          227.00000000          139.00000000          144.00000000         2305.00000000         4812.00000000        48869.00000000          -15.00000000          -15.00000000           28.07609940           27.00000000        35670.00000000 
       11875.40331459            1.00000000           12.02519512       146710.00000000        96473.60156250       167955.59375000            4.40000010           -9.19999981       154418.20312500           52.00000000          184.00000000           81.00000000          221.00000000          150.00000000          136.00000000         2157.00000000         4634.00000000        46969.00000000          -15.00000000          -15.00000000           28.07609940           29.00000000        34262.00000000 
       11875.79602838            1.00000000           12.02564573       147288.00000000        96894.60156250       169469.59375000           15.39999962          -23.20000076       156675.73437500           49.00000000          181.00000000           65.00000000          207.00000000          138.00000000          115.00000000         2134.00000000         4194.00000000        43771.00000000          -15.00000000          -15.00000000           28.07609940           32.00000000        31960.00000000 
       11876.18876851            1.00000000           12.02597237       146569.00000000        96406.60156250       169029.59375000           11.39999962          -21.20000076       156900.62500000           44.00000000          207.00000000           83.00000000          212.00000000          131.00000000          123.00000000         2300.00000000         3923.00000000        41431.00000000          -15.00000000          -15.00000000           28.07609940           32.00000000        29950.00000000 
       11876.58153499            1.00000000           12.02646351       146894.00000000        96676.60156250       167999.59375000           14.39999962          -18.20000076       157019.75000000           51.00000000          183.00000000           58.00000000          202.00000000          103.00000000           99.00000000         2349.00000000         3530.00000000        37432.00000000          -15.00000000          -15.00000000           28.07609940           19.00000000        26760.00000000 
       11877.02342877            1.00000000           12.02666855       146520.00000000        96408.60156250       169965.59375000            5.40000010          -38.20000076       159918.70312500           29.00000000          178.00000000           56.00000000          188.00000000          106.00000000          104.00000000         2374.00000000         3274.00000000        33552.00000000          -15.00000000          -15.00000000           28.07609940           23.00000000        23541.00000000 
       11877.41625125            1.00000000           12.02732229       146932.00000000        96644.60156250       167520.59375000           -8.60000038          -35.20000076       158453.95312500           33.00000000          200.00000000           47.00000000          197.00000000           96.00000000           94.00000000         2390.00000000         2821.00000000        30477.00000000          -15.00000000          -15.00000000           28.07609940           25.00000000        21304.00000000 
       11877.80910008            1.00000000           12.02752733       146667.00000000        96495.60156250       168863.59375000          -22.60000038          -24.20000076       160390.01562500           31.00000000          187.00000000           60.00000000          208.00000000           83.00000000          101.00000000         2348.00000000         2584.00000000        28067.00000000          -15.00000000          -15.00000000           28.07609940           16.00000000        19337.00000000 
       11878.20197527            1.00000000           12.02801847       146313.00000000        96284.60156250       168985.59375000           -9.60000038           -9.19999981       160774.82812500           29.00000000          181.00000000           53.00000000          176.00000000           92.00000000           87.00000000         2427.00000000         2496.00000000        27100.00000000          -15.00000000          -15.00000000           28.07609940           15.00000000        18546.00000000 
       11878.59487682            1.00000000           12.02846718       146613.00000000        96495.60156250       169156.59375000           12.39999962          -39.20000076       161254.50000000           31.00000000          174.00000000           38.00000000          210.00000000           98.00000000           94.00000000         2476.00000000         2384.00000000        25966.00000000          -15.00000000          -15.00000000           28.07609940           17.00000000        17640.00000000 
       11878.98780474            1.00000000           12.02887535       146581.00000000        96498.60156250       167499.59375000            6.40000010          -16.20000076       159907.81250000           29.00000000          203.00000000           46.00000000          167.00000000           82.00000000           59.00000000         2497.00000000         2278.00000000        25128.00000000          -15.00000000          -15.00000000           28.07609940           13.00000000        16955.00000000 
       11879.38075902            1.00000000           12.02928638       146021.00000000        96079.60156250       168742.59375000           18.39999962          -32.20000076       161013.75000000           35.00000000          165.00000000           43.00000000          183.00000000           77.00000000           74.00000000         2581.00000000         2215.00000000        25416.00000000          -15.00000000          -15.00000000           28.07609940           24.00000000        17217.00000000 
       11879.82286410            1.00000000           12.02948952       147099.00000000        96857.60156250       170035.59375000           31.39999962          -17.20000076       162332.54687500           38.00000000          184.00000000           38.00000000          189.00000000           90.00000000           80.00000000         2553.00000000         2260.00000000        25115.00000000          -15.00000000          -15.00000000           28.07609940           22.00000000        16857.00000000 
       11880.21587442            1.00000000           12.03018379       145734.00000000        95906.60156250       169873.59375000           -5.59999990          -48.20000076       162147.39062500           20.00000000          213.00000000           43.00000000          162.00000000           75.00000000           69.00000000         2616.00000000         2270.00000000        25223.00000000          -15.00000000          -15.00000000           28.07609940           33.00000000        16985.00000000 
       11880.60891112            1.00000000           12.03038836       145248.00000000        95620.60156250       168631.59375000            7.40000010          -22.20000076       161047.95312500           24.00000000          161.00000000           39.00000000          176.00000000           78.00000000           69.00000000         2500.00000000         2219.00000000        24916.00000000          -15.00000000          -15.00000000           28.07609940           22.00000000        16808.00000000 
       11881.00197419            1.00000000           12.03096008       145255.00000000        95622.60156250       168069.59375000            1.39999998          -28.20000076       160522.14062500           40.00000000          167.00000000           48.00000000          173.00000000           75.00000000           86.00000000         2585.00000000         2200.00000000        24877.00000000          -15.00000000          -15.00000000           28.07609940           18.00000000        16778.00000000 
       11881.39506364            1.00000000           12.03108120       145154.00000000        95575.60156250       168986.59375000            5.40000010          -35.20000076       161376.31250000           35.00000000          175.00000000           45.00000000          192.00000000           75.00000000           98.00000000         2496.00000000         2273.00000000        24954.00000000          -15.00000000          -15.00000000           28.07609940           30.00000000        16744.00000000 
       11881.78817947            1.00000000           12.03161335       145937.00000000        96075.60156250       168720.59375000            4.40000010          -16.20000076       161244.21875000           25.00000000          176.00000000           37.00000000          176.00000000           77.00000000           86.00000000         2486.00000000         2169.00000000        24520.00000000          -15.00000000          -15.00000000           28.07609940           26.00000000        16448.00000000 
       11882.18132169            1.00000000           12.03198051       146369.00000000        96361.60156250       168741.59375000           37.40000153          -36.20000076       161276.39062500           27.00000000          147.00000000           49.00000000          178.00000000           63.00000000           71.00000000         2395.00000000         2188.00000000        24477.00000000          -15.00000000          -15.00000000           28.07609940           22.00000000        16642.00000000 
       11882.62363823            1.00000000           12.03251171       146358.00000000        96374.60156250       170055.59375000            3.40000010           -5.19999981       162370.29687500           25.00000000          166.00000000           49.00000000          186.00000000           70.00000000           80.00000000         2577.00000000         2262.00000000        25049.00000000          -15.00000000          -15.00000000           28.07609940           20.00000000        16823.00000000 
       11883.01683653            1.00000000           12.03287935       146087.00000000        96230.60156250       170037.59375000            6.40000010           -5.19999981       162438.84375000           36.00000000          174.00000000           50.00000000          181.00000000           69.00000000           76.00000000         2507.00000000         2247.00000000        24746.00000000          -15.00000000          -15.00000000           28.07609940           17.00000000        16556.00000000 
       11883.41006122            1.00000000           12.03312397       146146.00000000        96247.60156250       170168.59375000           11.39999962          -33.20000076       162548.40625000           25.00000000          169.00000000           47.00000000          156.00000000           84.00000000           75.00000000         2524.00000000         2203.00000000        24801.00000000          -15.00000000          -15.00000000           28.07609940           19.00000000        16667.00000000 
       11883.80331231            1.00000000           12.03349066       146330.00000000        96429.60156250       169946.59375000            5.40000010          -25.20000076       162457.54687500           36.00000000          179.00000000           45.00000000          184.00000000           84.00000000           88.00000000         2419.00000000         2147.00000000        24373.00000000          -15.00000000          -15.00000000           28.07609940           20.00000000        16436.00000000 
       11884.19658979            1.00000000           12.03406143       145972.00000000        96210.60156250       169658.59375000            0.40000001          -16.20000076       162173.18750000           32.00000000          176.00000000           35.00000000          193.00000000           75.00000000           74.00000000         2444.00000000         2262.00000000        24405.00000000          -15.00000000          -15.00000000           28.07609940           18.00000000        16381.00000000 
       11884.58989368            1.00000000           12.03438807       145990.00000000        96195.60156250       171210.59375000          -14.60000038            0.80000001       163648.71875000           32.00000000          184.00000000           46.00000000          179.00000000           73.00000000           86.00000000         2439.00000000         2163.00000000        24433.00000000          -15.00000000          -15.00000000           28.07609940           20.00000000        16413.00000000 
       11884.98322397            1.00000000           12.03499889       145976.00000000        96123.60156250       170883.59375000          -17.60000038          -37.20000076       163377.48437500           32.00000000          172.00000000           35.00000000          190.00000000           89.00000000           84.00000000         2409.00000000         2174.00000000        24288.00000000          -15.00000000          -15.00000000           28.07609940           18.00000000        16334.00000000 
       11885.37658067            1.00000000           12.03516293       145935.00000000        96156.60156250       171796.59375000           16.39999962          -14.19999981       164188.50000000           28.00000000          154.00000000           41.00000000          174.00000000           69.00000000           79.00000000         2485.00000000         2249.00000000        24504.00000000          -15.00000000          -15.00000000           28.07609940           24.00000000        16526.00000000 
       11885.81913852            1.00000000           12.03585577       145707.00000000        95946.60156250       171875.59375000           -1.60000002          -14.19999981       164246.81250000           33.00000000          161.00000000           56.00000000          169.00000000           80.00000000           76.00000000         2622.00000000         2208.00000000        24564.00000000          -15.00000000          -15.00000000           28.07609940           23.00000000        16377.00000000 
       11886.21255134            1.00000000           12.03597784       145363.00000000        95780.60156250       171784.59375000           15.39999962           -6.19999981       164269.87500000           29.00000000          186.00000000           45.00000000          179.00000000           82.00000000           75.00000000         2538.00000000         2131.00000000        24180.00000000          -15.00000000          -15.00000000           28.07609940           23.00000000        16244.00000000 
       11886.60599058            1.00000000           12.03650665       145701.00000000        96046.60156250       171086.59375000           23.39999962            4.80000019       163568.71875000           36.00000000          170.00000000           46.00000000          166.00000000           77.00000000           67.00000000         2557.00000000         2169.00000000        24298.00000000          -15.00000000          -15.00000000           28.07609940           24.00000000        16212.00000000 
       11886.99945623            1.00000000           12.03675175       145420.00000000        95807.60156250       171587.59375000           36.40000153          -35.20000076       164075.76562500           37.00000000          158.00000000           56.00000000          209.00000000           62.00000000           88.00000000         2501.00000000         2120.00000000        24200.00000000          -15.00000000          -15.00000000           28.07609940           21.00000000        16232.00000000 
       11887.83565847            1.00000000           12.03789234       145211.00000000        95676.60156250       172639.59375000           23.39999962            3.79999995       165078.25000000           29.00000000          174.00000000           39.00000000          182.00000000           79.00000000           78.00000000         2584.00000000         2137.00000000        24212.00000000          -15.00000000          -15.00000000           28.07609940           12.00000000        16315.00000000 
       11888.72117915            1.00000000           12.03882837       145162.00000000        95660.60156250       172092.59375000           74.40000153            0.80000001       164535.10937500           20.00000000          194.00000000           38.00000000          184.00000000           73.00000000           71.00000000         2464.00000000         2176.00000000        24282.00000000          -15.00000000          -15.00000000           28.07609940           17.00000000        16274.00000000 
       11889.65604058            1.00000000           12.03976393       144704.00000000        95371.60156250       173044.59375000           35.40000153           11.80000019       165457.42187500           35.00000000          184.00000000           39.00000000          163.00000000           79.00000000           71.00000000         2482.00000000         2241.00000000        24240.00000000          -15.00000000          -15.00000000           28.07609940           24.00000000        16206.00000000 
       11890.59105115            1.00000000           12.04045582       144184.00000000        95040.60156250       171669.59375000           24.39999962          -12.19999981       164119.51562500           34.00000000          183.00000000           44.00000000          207.00000000           77.00000000           96.00000000         2581.00000000         2186.00000000        24321.00000000          -15.00000000          -15.00000000           28.07609940           16.00000000        16185.00000000 
       11891.57543394            1.00000000           12.04167652       144934.00000000        95563.60156250       174483.59375000           30.39999962          -10.19999981       166904.71875000           28.00000000          182.00000000           48.00000000          157.00000000           65.00000000           75.00000000         2581.00000000         2248.00000000        23995.00000000          -15.00000000          -15.00000000           28.07609940           21.00000000        15940.00000000 
       11892.51075073            1.00000000           12.04236746       145196.00000000        95749.60156250       174690.59375000           37.40000153          -29.20000076       167125.20312500           27.00000000          184.00000000           38.00000000          194.00000000           74.00000000           87.00000000         2448.00000000         2164.00000000        23918.00000000          -15.00000000          -15.00000000           28.07609940           25.00000000        15985.00000000 
       11893.54469554            1.00000000           12.04366684       144653.00000000        95288.60156250       175230.59375000           14.39999962           13.80000019       167663.78125000           25.00000000          170.00000000           31.00000000          181.00000000           76.00000000           79.00000000         2617.00000000         2061.00000000        23843.00000000          -15.00000000          -15.00000000           28.07609940           21.00000000        15939.00000000 
       11894.52957441            1.00000000           12.04439878       145210.00000000        95711.60156250       175461.59375000           50.40000153            1.79999995       167955.25000000           22.00000000          173.00000000           53.00000000          180.00000000           86.00000000           78.00000000         2496.00000000         2152.00000000        23603.00000000          -15.00000000          -15.00000000           28.07609940           17.00000000        15624.00000000 
       11895.56387530            1.00000000           12.04537249       144831.00000000        95496.60156250       175914.59375000           44.40000153            1.79999995       168451.32812500           28.00000000          177.00000000           42.00000000          169.00000000           68.00000000           85.00000000         2428.00000000         2032.00000000        23391.00000000          -15.00000000          -15.00000000           28.07609940           41.00000000        15721.00000000 
       11896.59835863            1.00000000           12.04679298       144365.00000000        95095.60156250       176590.59375000           40.40000153           16.79999924       169124.10937500           38.00000000          192.00000000           55.00000000          175.00000000           75.00000000           75.00000000         2539.00000000         1988.00000000        23305.00000000          -15.00000000          -15.00000000           28.07609940           27.00000000        15490.00000000 
       11897.68229882            1.00000000           12.04748297       144715.00000000        95470.60156250       177395.59375000           41.40000153          -19.20000076       170157.90625000           18.00000000          192.00000000           49.00000000          206.00000000           71.00000000           84.00000000         2423.00000000         2001.00000000        22423.00000000          -15.00000000          -15.00000000           28.07609940           36.00000000        14928.00000000 
       11898.76643935            1.00000000           12.04894114       144326.00000000        95062.60156250       178071.59375000           55.40000153            4.80000019       170737.70312500           30.00000000          226.00000000           37.00000000          191.00000000           61.00000000           80.00000000         2420.00000000         2068.00000000        22652.00000000          -15.00000000          -15.00000000           28.07609940           18.00000000        14952.00000000 
       11899.90007328            1.00000000           12.04971266       143783.00000000        94700.60156250       178116.59375000           30.39999962           23.79999924       170944.01562500           38.00000000          183.00000000           33.00000000          173.00000000           71.00000000           68.00000000         2501.00000000         1994.00000000        22108.00000000          -15.00000000          -15.00000000           28.07609940           17.00000000        14395.00000000 
       11901.03392630            1.00000000           12.05084515       144988.00000000        95486.60156250       177397.59375000           42.40000153           23.79999924       170548.17187500           22.00000000          178.00000000           33.00000000          157.00000000           58.00000000           55.00000000         2423.00000000         1975.00000000        21127.00000000          -15.00000000          -15.00000000           28.07609940           20.00000000        13808.00000000 
       11902.16799849            1.00000000           12.05197906       143851.00000000        94676.60156250       178209.59375000           36.40000153           20.79999924       171403.46875000           36.00000000          183.00000000           34.00000000          185.00000000           54.00000000           77.00000000         2463.00000000         1812.00000000        20880.00000000          -15.00000000          -15.00000000           28.07609940           24.00000000        13640.00000000 
       11903.35161189            1.00000000           12.05315304       143338.00000000        94265.60156250       179695.59375000           54.40000153            5.80000019       173078.15625000           26.00000000          175.00000000           44.00000000          178.00000000           68.00000000           76.00000000         2442.00000000         1737.00000000        20077.00000000          -15.00000000          -15.00000000           28.07609940           17.00000000        12943.00000000 
       11904.53546407            1.00000000           12.05465031       143682.00000000        94404.60156250       178971.59375000           49.40000153           -5.19999981       172510.01562500           23.00000000          210.00000000           38.00000000          138.00000000           76.00000000           56.00000000         2564.00000000         1685.00000000        19654.00000000          -15.00000000          -15.00000000           28.07609940           25.00000000        12538.00000000 
       11905.71955509            1.00000000           12.05553865       143891.00000000        94573.60156250       178685.59375000           36.40000153           -1.20000005       172434.40625000           33.00000000          184.00000000           32.00000000          181.00000000           67.00000000           77.00000000         2485.00000000         1605.00000000        19000.00000000          -15.00000000          -15.00000000           28.07609940           17.00000000        12116.00000000 
       11906.95323731            1.00000000           12.05715466       143562.00000000        94210.60156250       178495.59375000           50.40000153          -32.20000076       172345.43750000           29.00000000          175.00000000           36.00000000          178.00000000           67.00000000           65.00000000         2489.00000000         1581.00000000        18692.00000000          -15.00000000          -15.00000000           28.07609940           20.00000000        11921.00000000 
       11908.18717884            1.00000000           12.05824518       143151.00000000        93810.60156250       179053.59375000           36.40000153          -27.20000076       172946.09375000           26.00000000          188.00000000           36.00000000          193.00000000           83.00000000           76.00000000         2583.00000000         1598.00000000        18491.00000000          -15.00000000          -15.00000000           28.07609940           16.00000000        11593.00000000 
       11909.42137979            1.00000000           12.05937481       143914.00000000        94128.60156250       178013.59375000           38.40000153          -52.20000076       172096.15625000           32.00000000          178.00000000           36.00000000          153.00000000           68.00000000           70.00000000         2583.00000000         1578.00000000        17987.00000000          -15.00000000          -15.00000000           28.07609940           16.00000000        11148.00000000 
       11910.70522403            1.00000000           12.06082678       143056.00000000        93301.60156250       178576.59375000           42.40000153          -28.20000076       172529.62500000           21.00000000          179.00000000           31.00000000          163.00000000           65.00000000           69.00000000         2698.00000000         1562.00000000        18347.00000000          -15.00000000          -15.00000000           28.07609940           23.00000000        11391.00000000 
       11912.03874407            1.00000000           12.06215811       142875.00000000        92833.60156250       179091.59375000           25.39999962          -27.20000076       173012.39062500           34.00000000          176.00000000           29.00000000          167.00000000           80.00000000           72.00000000         2721.00000000         1583.00000000        18395.00000000          -15.00000000          -15.00000000           28.07609940           17.00000000        11360.00000000 
       11913.32316072            1.00000000           12.06348753       142779.00000000        92341.60156250       177470.59375000           27.39999962          -37.20000076       171417.70312500           31.00000000          177.00000000           39.00000000          146.00000000           69.00000000           66.00000000         2660.00000000         1569.00000000        18489.00000000          -15.00000000          -15.00000000           28.07609940           19.00000000        11465.00000000 
       11914.65727536            1.00000000           12.06481695       142536.00000000        91484.60156250       177162.59375000           48.40000153          -18.20000076       171175.09375000           20.00000000          153.00000000           30.00000000          170.00000000           75.00000000           67.00000000         2664.00000000         1567.00000000        18309.00000000          -15.00000000          -15.00000000           28.07609940           17.00000000        11441.00000000 
       11916.04112178            1.00000000           12.06582355       142738.00000000        90187.60156250       176709.59375000           37.40000153          -20.20000076       170630.09375000           25.00000000          170.00000000           40.00000000          180.00000000           57.00000000           66.00000000         2538.00000000         1646.00000000        18662.00000000          -15.00000000          -15.00000000           28.07609940           16.00000000        11759.00000000 
       11917.42529425            1.00000000           12.06743193       142342.00000000        88269.60156250       176564.59375000           34.40000153            8.80000019       170407.29687500           29.00000000          177.00000000           26.00000000          156.00000000           55.00000000           54.00000000         2653.00000000         1676.00000000        18935.00000000          -15.00000000          -15.00000000           28.07609940           20.00000000        11868.00000000 
       11918.80979288            1.00000000           12.06903982       141635.00000000        85769.60156250       177084.59375000           43.40000153           -1.20000005       170883.04687500           30.00000000          194.00000000           38.00000000          150.00000000           70.00000000           60.00000000         2565.00000000         1628.00000000        19021.00000000          -15.00000000          -15.00000000           28.07609940           14.00000000        11906.00000000 
       11920.19461779            1.00000000           12.07020473       141811.00000000        83422.60156250       175665.59375000           16.39999962          -59.20000076       169483.01562500           35.00000000          189.00000000           36.00000000          174.00000000           58.00000000           66.00000000         2537.00000000         1727.00000000        19123.00000000          -15.00000000          -15.00000000           28.07609940           22.00000000        12058.00000000 
       11921.62924482            1.00000000           12.07160950       141816.00000000        81349.60156250       174641.59375000           15.39999962          -39.20000076       168469.60937500           21.00000000          174.00000000           43.00000000          157.00000000           67.00000000           65.00000000         2474.00000000         1731.00000000        19208.00000000          -15.00000000          -15.00000000           28.07609940           17.00000000        12300.00000000 
       11923.11371033            1.00000000           12.07293320       141034.00000000        80205.60156250       175615.59375000            3.40000010          -16.20000076       169351.46875000           14.00000000          160.00000000           36.00000000          159.00000000           80.00000000           74.00000000         2502.00000000         1654.00000000        19400.00000000          -15.00000000          -15.00000000           28.07609940           22.00000000        12375.00000000 
       11924.54905007            1.00000000           12.07457781       140819.00000000        79959.60156250       173918.59375000           26.39999962          -19.20000076       167679.59375000           23.00000000          151.00000000           34.00000000          172.00000000           65.00000000           66.00000000         2594.00000000         1680.00000000        19519.00000000          -15.00000000          -15.00000000           28.07609940           28.00000000        12463.00000000 
       11926.08376638            1.00000000           12.07622004       140217.00000000        79619.60156250       173146.59375000           29.39999962          -14.19999981       166936.17187500           22.00000000          184.00000000           41.00000000          164.00000000           69.00000000           69.00000000         2501.00000000         1699.00000000        19516.00000000          -15.00000000          -15.00000000           28.07609940            9.00000000        12437.00000000 
       11927.56935720            1.00000000           12.07738304       131867.00000000        74784.60156250       169155.59375000           25.39999962           -7.19999981       163076.75000000           23.00000000          174.00000000           39.00000000          155.00000000           74.00000000           69.00000000         2550.00000000         1663.00000000        19556.00000000          -15.00000000          -15.00000000           28.07609940           17.00000000        12526.00000000 
       11929.10486209            1.00000000           12.07942295       121136.00000000        68384.60156250       145363.59375000           33.40000153          -31.20000076       140831.35937500           30.00000000          131.00000000           31.00000000          130.00000000           63.00000000           65.00000000         2147.00000000         1481.00000000        16796.00000000          -15.00000000          -15.00000000           28.07609940           13.00000000        10794.00000000 
       11930.64076797            1.00000000           12.08062363       140517.00000000        79170.60156250       173803.59375000           41.40000153          -13.19999981       167414.98437500           24.00000000          168.00000000           39.00000000          178.00000000           60.00000000           79.00000000         2592.00000000         1720.00000000        20037.00000000          -15.00000000          -15.00000000           28.07609940           17.00000000        12862.00000000 
       11932.22663996            1.00000000           12.08210182       142212.00000000        79897.60156250       175676.59375000           19.39999962          -23.20000076       169020.01562500           29.00000000          161.00000000           31.00000000          175.00000000           71.00000000           73.00000000         2683.00000000         1853.00000000        20703.00000000          -15.00000000          -15.00000000           28.07609940           31.00000000        13277.00000000 
       11933.81293957            1.00000000           12.08362007       141591.00000000        79337.60156250       175133.59375000           50.40000153          -27.20000076       168433.65625000           31.00000000          193.00000000           43.00000000          169.00000000           75.00000000           71.00000000         2616.00000000         1887.00000000        20918.00000000          -15.00000000          -15.00000000           28.07609940           23.00000000        13350.00000000 
       11935.39966697            1.00000000           12.08537626       141469.00000000        79213.60156250       175871.59375000           41.40000153          -25.20000076       169199.56250000           30.00000000          181.00000000           48.00000000          163.00000000           78.00000000           69.00000000         2610.00000000         1809.00000000        20730.00000000          -15.00000000          -15.00000000           28.07609940           15.00000000        13365.00000000 
       11937.03642782            1.00000000           12.08693314       141084.00000000        78931.60156250       175659.59375000           30.39999962           -7.19999981       168907.35937500           18.00000000          165.00000000           43.00000000          161.00000000           70.00000000           69.00000000         2672.00000000         1850.00000000        21026.00000000          -15.00000000          -15.00000000           28.07609940           17.00000000        13463.00000000 
       11938.67364399            1.00000000           12.08856678       140877.00000000        78678.60156250       176213.59375000           36.40000153          -20.20000076       169368.39062500           34.00000000          173.00000000           43.00000000          174.00000000           58.00000000           74.00000000         2553.00000000         1903.00000000        21266.00000000          -15.00000000          -15.00000000           28.07609940           14.00000000        13821.00000000 
       11940.31131567            1.00000000           12.09015989       140424.00000000        78301.60156250       176129.59375000           21.39999962          -40.20000076       169214.01562500           29.00000000          158.00000000           46.00000000          184.00000000           81.00000000           70.00000000         2708.00000000         1897.00000000        21513.00000000          -15.00000000          -15.00000000           28.07609940           17.00000000        13841.00000000 
       11941.99909037            1.00000000           12.09195185       140688.00000000        78190.60156250       175679.59375000            9.39999962          -25.20000076       168797.14062500           20.00000000          163.00000000           41.00000000          166.00000000           77.00000000           93.00000000         2644.00000000         1904.00000000        21461.00000000          -15.00000000          -15.00000000           28.07609940           17.00000000        13911.00000000 
       11943.68734901            1.00000000           12.09374046       140296.00000000        77524.60156250       174218.59375000           26.39999962          -19.20000076       167541.54687500           28.00000000          138.00000000           38.00000000          174.00000000           67.00000000           74.00000000         2572.00000000         1846.00000000        20959.00000000          -15.00000000          -15.00000000           28.07609940           19.00000000        13675.00000000 
       11945.42576803            1.00000000           12.09540987       139975.00000000        76760.60156250       175219.59375000           17.39999962          -38.20000076       168251.50000000           36.00000000          153.00000000           42.00000000          159.00000000           74.00000000           75.00000000         2569.00000000         1891.00000000        21811.00000000          -15.00000000          -15.00000000           28.07609940           27.00000000        14250.00000000 
       11947.16470031            1.00000000           12.09711885       139855.00000000        76644.60156250       174492.59375000           48.40000153          -23.20000076       167582.29687500           24.00000000          151.00000000           46.00000000          142.00000000           68.00000000           72.00000000         2653.00000000         1947.00000000        21713.00000000          -15.00000000          -15.00000000           28.07609940           17.00000000        14167.00000000 
       11948.90414608            1.00000000           12.09886408       139509.00000000        76791.60156250       174757.59375000           47.40000153          -40.20000076       167801.07812500           25.00000000          161.00000000           54.00000000          168.00000000           69.00000000           77.00000000         2597.00000000         1889.00000000        21834.00000000          -15.00000000          -15.00000000           28.07609940           23.00000000        14247.00000000 
       11950.69382626            1.00000000           12.10060930       139903.00000000        77315.60156250       173967.59375000           24.39999962          -23.20000076       167065.75000000           24.00000000          169.00000000           31.00000000          152.00000000           76.00000000           71.00000000         2657.00000000         1887.00000000        21755.00000000          -15.00000000          -15.00000000           28.07609940           24.00000000        14183.00000000 
       11952.48405017            1.00000000           12.10251045       139005.00000000        77092.60156250       172294.59375000          -13.60000038          -19.20000076       165626.43750000           34.00000000          160.00000000           31.00000000          170.00000000           65.00000000           85.00000000         2612.00000000         1886.00000000        21181.00000000          -15.00000000          -15.00000000           28.07609940           21.00000000        13610.00000000 
       11954.27481807            1.00000000           12.10425282       137342.00000000        76188.60156250       170077.59375000           26.39999962          -45.20000076       163532.71875000           22.00000000          152.00000000           48.00000000          161.00000000           62.00000000           82.00000000         2616.00000000         1800.00000000        21051.00000000          -15.00000000          -15.00000000           28.07609940           20.00000000        13671.00000000 
       11956.11589664            1.00000000           12.10623074       139278.00000000        77321.60156250       173341.59375000           50.40000153          -33.20000076       166683.15625000           34.00000000          131.00000000           45.00000000          149.00000000           60.00000000           56.00000000         2751.00000000         1794.00000000        21010.00000000          -15.00000000          -15.00000000           28.07609940           13.00000000        13603.00000000 
       11957.95755037            1.00000000           12.10804844       139718.00000000        77636.60156250       172550.59375000           23.39999962          -34.20000076       165888.60937500           25.00000000          125.00000000           42.00000000          166.00000000           56.00000000           67.00000000         2748.00000000         1884.00000000        21126.00000000          -15.00000000          -15.00000000           28.07609940           23.00000000        13500.00000000 
       11959.84957750            1.00000000           12.10978699       138794.00000000        77116.60156250       173146.59375000           30.39999962          -38.20000076       166523.26562500           27.00000000          131.00000000           38.00000000          155.00000000           79.00000000           59.00000000         2600.00000000         1826.00000000        20916.00000000          -15.00000000          -15.00000000           28.07609940           16.00000000        13607.00000000 
       11961.74221186            1.00000000           12.11164188       138268.00000000        76660.60156250       173289.59375000           32.40000153          -36.20000076       166564.14062500           24.00000000          146.00000000           43.00000000          173.00000000           71.00000000           63.00000000         2738.00000000         1908.00000000        21245.00000000          -15.00000000          -15.00000000           28.07609940           18.00000000        13528.00000000 
       11963.63545375            1.00000000           12.11361217       138161.00000000        76344.60156250       172227.59375000           38.40000153          -43.20000076       165660.17187500           22.00000000          138.00000000           48.00000000          147.00000000           62.00000000           69.00000000         2783.00000000         1834.00000000        20845.00000000          -15.00000000          -15.00000000           28.07609940           20.00000000        13308.00000000 
       11965.52930347            1.00000000           12.11562300       138222.00000000        76177.60156250       172401.59375000           28.39999962          -20.20000076       165742.43750000           23.00000000          114.00000000           52.00000000          175.00000000           68.00000000           69.00000000         2770.00000000         1801.00000000        21136.00000000          -15.00000000          -15.00000000           28.07609940           21.00000000        13487.00000000 
       11967.52348645            1.00000000           12.11755180       138522.00000000        76220.60156250       171473.59375000           -4.59999990          -15.19999981       164944.53125000           29.00000000          145.00000000           37.00000000          189.00000000           74.00000000           72.00000000         2771.00000000         1743.00000000        20812.00000000          -15.00000000          -15.00000000           28.07609940           13.00000000        13325.00000000 
       11969.46846394            1.00000000           12.11951780       137849.00000000        75751.60156250       171805.59375000           30.39999962          -50.20000076       165289.56250000           31.00000000          150.00000000           38.00000000          150.00000000           55.00000000           54.00000000         2822.00000000         1782.00000000        20724.00000000          -15.00000000          -15.00000000           28.07609940           16.00000000        13293.00000000 
       11971.46397870            1.00000000           12.12136364       136725.00000000        75241.60156250       172377.59375000           46.40000153          -50.20000076       165858.60937500           37.00000000          129.00000000           44.00000000          160.00000000           76.00000000           79.00000000         2734.00000000         1784.00000000        20660.00000000          -15.00000000          -15.00000000           28.07609940           18.00000000        13164.00000000 
       11973.46016828            1.00000000           12.12348509       137334.00000000        75716.60156250       171029.59375000           33.40000153          -44.20000076       164566.53125000           26.00000000          176.00000000           46.00000000          182.00000000           72.00000000           80.00000000         2749.00000000         1835.00000000        20643.00000000          -15.00000000          -15.00000000           28.07609940           22.00000000        13137.00000000 
       11975.45703303            1.00000000           12.12544584       136738.00000000        75475.60156250       171612.59375000           49.40000153          -26.20000076       165113.79687500           34.00000000          149.00000000           40.00000000          171.00000000           63.00000000           68.00000000         2690.00000000         1776.00000000        20690.00000000          -15.00000000          -15.00000000           28.07609940           16.00000000        13260.00000000 
       11977.50452044            1.00000000           12.12756252       136461.00000000        75455.60156250       171278.59375000           28.39999962          -33.20000076       164750.84375000           28.00000000          159.00000000           36.00000000          175.00000000           85.00000000           86.00000000         2586.00000000         1839.00000000        20833.00000000          -15.00000000          -15.00000000           28.07609940           17.00000000        13476.00000000 
       11979.55271793            1.00000000           12.12951899       136915.00000000        75850.60156250       171110.59375000           44.40000153          -45.20000076       164686.93750000           30.00000000          172.00000000           39.00000000          176.00000000           80.00000000           85.00000000         2612.00000000         1745.00000000        20497.00000000          -15.00000000          -15.00000000           28.07609940           23.00000000        13223.00000000 
       11981.65160809            1.00000000           12.13174915       136589.00000000        75699.60156250       170057.59375000           67.40000153          -33.20000076       163783.48437500           28.00000000          156.00000000           45.00000000          167.00000000           69.00000000           75.00000000         2567.00000000         1701.00000000        20117.00000000          -15.00000000          -15.00000000           28.07609940           17.00000000        12928.00000000 
       11983.75124416            1.00000000           12.13370275       136408.00000000        75668.60156250       170895.59375000           27.39999962          -32.20000076       164576.59375000           36.00000000          169.00000000           39.00000000          168.00000000           62.00000000           64.00000000         2536.00000000         1714.00000000        20165.00000000          -15.00000000          -15.00000000           28.07609940           23.00000000        13093.00000000 
       11985.85162654            1.00000000           12.13569450       136641.00000000        75867.60156250       170300.59375000           17.39999962          -55.20000076       164007.35937500           27.00000000          166.00000000           46.00000000          165.00000000           81.00000000           81.00000000         2570.00000000         1799.00000000        20152.00000000          -15.00000000          -15.00000000           28.07609940           16.00000000        12948.00000000 
       11988.00279161            1.00000000           12.13787842       135848.00000000        75562.60156250       170379.59375000           21.39999962          -29.20000076       164014.96875000           23.00000000          165.00000000           31.00000000          163.00000000           62.00000000           71.00000000         2501.00000000         1722.00000000        20388.00000000          -15.00000000          -15.00000000           28.07609940           24.00000000        13292.00000000 
       11990.15473978            1.00000000           12.14033461       135664.00000000        75521.60156250       171932.59375000           24.39999962          -37.20000076       165555.32812500           23.00000000          165.00000000           27.00000000          180.00000000           80.00000000           72.00000000         2528.00000000         1818.00000000        20233.00000000          -15.00000000          -15.00000000           28.07609940           20.00000000        13073.00000000 
       11992.30747149            1.00000000           12.14231968       135418.00000000        75401.60156250       169657.59375000           25.39999962          -23.20000076       163521.85937500           20.00000000          177.00000000           33.00000000          154.00000000           69.00000000           66.00000000         2465.00000000         1737.00000000        19690.00000000          -15.00000000          -15.00000000           28.07609940           23.00000000        12692.00000000 
       11994.51107825            1.00000000           12.14469194       135128.00000000        75241.60156250       168845.59375000           34.40000153          -41.20000076       162814.85937500           25.00000000          169.00000000           41.00000000          158.00000000           71.00000000           75.00000000         2344.00000000         1681.00000000        19428.00000000          -15.00000000          -15.00000000           28.07609940           17.00000000        12599.00000000 
       11996.71550631            1.00000000           12.14671230       134594.00000000        74851.60156250       169662.59375000           27.39999962          -27.20000076       163429.09375000           37.00000000          197.00000000           28.00000000          171.00000000           67.00000000           63.00000000         2395.00000000         1869.00000000        20027.00000000          -15.00000000          -15.00000000           28.07609940           16.00000000        12913.00000000 
       11998.97088501            1.00000000           12.14900303       134111.00000000        74544.60156250       168782.59375000           49.40000153           -3.20000005       162667.82812500           22.00000000          182.00000000           52.00000000          154.00000000           63.00000000           51.00000000         2411.00000000         1736.00000000        19727.00000000          -15.00000000          -15.00000000           28.07609940           22.00000000        12674.00000000 
       12001.22712373            1.00000000           12.15136814       134306.00000000        74573.60156250       169365.59375000           28.39999962          -11.19999981       163185.76562500           20.00000000          198.00000000           43.00000000          188.00000000           64.00000000           85.00000000         2323.00000000         1789.00000000        19879.00000000          -15.00000000          -15.00000000           28.07609940           16.00000000        12913.00000000 
       12003.48422297            1.00000000           12.15330505       133822.00000000        74121.60156250       169836.59375000           19.39999962          -54.20000076       163513.93750000           21.00000000          191.00000000           33.00000000          188.00000000           64.00000000           62.00000000         2346.00000000         1661.00000000        20313.00000000          -15.00000000          -15.00000000           28.07609940           19.00000000        13398.00000000 
       12005.74218321            1.00000000           12.15593672       134004.00000000        74149.60156250       169395.59375000           38.40000153          -48.20000076       163164.09375000           27.00000000          186.00000000           29.00000000          187.00000000           75.00000000           72.00000000         2302.00000000         1744.00000000        20054.00000000          -15.00000000          -15.00000000           28.07609940           26.00000000        13200.00000000 
       12008.05121078            1.00000000           12.15802431       133408.00000000        73811.60156250       168993.59375000           27.39999962          -44.20000076       162778.04687500           35.00000000          191.00000000           43.00000000          172.00000000           65.00000000           65.00000000         2262.00000000         1769.00000000        20050.00000000          -15.00000000          -15.00000000           28.07609940           16.00000000        13241.00000000 
       12010.41136492            1.00000000           12.16057301       133935.00000000        74063.60156250       168604.59375000           26.39999962          -50.20000076       162512.70312500           23.00000000          168.00000000           39.00000000          166.00000000           80.00000000           72.00000000         2249.00000000         1660.00000000        19670.00000000          -15.00000000          -15.00000000           28.07609940           17.00000000        12942.00000000 
       12012.72221409            1.00000000           12.16273355       132905.00000000        73538.60156250       168097.59375000           -5.59999990          -73.19999695       161968.90625000           38.00000000          190.00000000           36.00000000          147.00000000           60.00000000           53.00000000         2308.00000000         1750.00000000        19862.00000000          -15.00000000          -15.00000000           28.07609940           16.00000000        13028.00000000 
       12015.08423053            1.00000000           12.16504526       132385.00000000        73268.60156250       167521.59375000           37.40000153          -70.19999695       161423.34375000           21.00000000          164.00000000           52.00000000          169.00000000           72.00000000           72.00000000         2295.00000000         1777.00000000        19829.00000000          -15.00000000          -15.00000000           28.07609940           10.00000000        12879.00000000 
       12017.49747490            1.00000000           12.16739464       132910.00000000        73568.60156250       167339.59375000           33.40000153          -66.19999695       161239.68750000           24.00000000          171.00000000           34.00000000          153.00000000           62.00000000           68.00000000         2373.00000000         1732.00000000        19858.00000000          -15.00000000          -15.00000000           28.07609940           18.00000000        12894.00000000 
       12019.91170239            1.00000000           12.16985416       132106.00000000        73088.60156250       167723.59375000           -7.59999990          -40.20000076       161607.68750000           15.00000000          167.00000000           49.00000000          148.00000000           75.00000000           59.00000000         2442.00000000         1714.00000000        19865.00000000          -15.00000000          -15.00000000           28.07609940           18.00000000        12841.00000000 
       12022.32691356            1.00000000           12.17246723       132070.00000000        73103.60156250       167335.59375000            7.40000010          -80.19999695       161313.85937500           20.00000000          175.00000000           34.00000000          156.00000000           79.00000000           50.00000000         2436.00000000         1673.00000000        19585.00000000          -15.00000000          -15.00000000           28.07609940           24.00000000        12706.00000000 
       12024.74310904            1.00000000           12.17480755       131920.00000000        72977.60156250       167820.59375000           -3.59999990          -73.19999695       161777.10937500           24.00000000          187.00000000           38.00000000          163.00000000           62.00000000           74.00000000         2553.00000000         1696.00000000        19600.00000000          -15.00000000          -15.00000000           28.07609940           23.00000000        12542.00000000 
       12027.21065782            1.00000000           12.17729855       131908.00000000        72931.60156250       167659.59375000            3.40000010          -75.19999695       161509.68750000           18.00000000          167.00000000           35.00000000          155.00000000           79.00000000           64.00000000         2527.00000000         1781.00000000        19992.00000000          -15.00000000          -15.00000000           28.07609940           10.00000000        12849.00000000 
       12029.67923359            1.00000000           12.17978668       131368.00000000        72629.60156250       167110.59375000          -38.59999847          -61.20000076       161043.28125000           30.00000000          152.00000000           37.00000000          183.00000000           60.00000000           74.00000000         2418.00000000         1753.00000000        19773.00000000          -15.00000000          -15.00000000           28.07609940           11.00000000        12839.00000000 
       12032.19924778            1.00000000           12.18219614       131135.00000000        72427.60156250       166828.59375000          -35.59999847          -79.19999695       160899.87500000           24.00000000          173.00000000           37.00000000          168.00000000           66.00000000           84.00000000         2429.00000000         1650.00000000        19323.00000000          -15.00000000          -15.00000000           28.07609940           22.00000000        12493.00000000 
       12034.72033266            1.00000000           12.18490648       130491.00000000        72063.60156250       166133.59375000          -26.60000038           -8.19999981       160082.46875000           34.00000000          169.00000000           42.00000000          152.00000000           69.00000000           59.00000000         2466.00000000         1739.00000000        19841.00000000          -15.00000000          -15.00000000           28.07609940           19.00000000        12846.00000000 
       12037.24248890            1.00000000           12.18731022       130660.00000000        72141.60156250       166524.59375000           -6.59999990          -43.20000076       160518.09375000           29.00000000          172.00000000           39.00000000          181.00000000           57.00000000           76.00000000         2400.00000000         1695.00000000        19634.00000000          -15.00000000          -15.00000000           28.07609940           18.00000000        12723.00000000 
       12039.76571720            1.00000000           12.18971109       130356.00000000        71997.60156250       165767.59375000          -22.60000038          -29.20000076       159785.85937500           31.00000000          177.00000000           40.00000000          149.00000000           55.00000000           54.00000000         2354.00000000         1749.00000000        19643.00000000          -15.00000000          -15.00000000           28.07609940           15.00000000        12750.00000000 
       12042.34051518            1.00000000           12.19237518       130127.00000000        71838.60156250       166282.59375000          -10.60000038          -53.20000076       160150.31250000           34.00000000          150.00000000           41.00000000          166.00000000           64.00000000           72.00000000         2412.00000000         1797.00000000        20108.00000000          -15.00000000          -15.00000000           28.07609940           16.00000000        13056.00000000 
       12044.96694926            1.00000000           12.19503593       129479.00000000        71434.60156250       166776.59375000          -52.59999847          -23.20000076       160613.59375000           25.00000000          167.00000000           47.00000000          151.00000000           65.00000000           60.00000000         2502.00000000         1726.00000000        20152.00000000          -15.00000000          -15.00000000           28.07609940           21.00000000        12995.00000000 
       12047.54400347            1.00000000           12.19742775       128150.00000000        70674.60156250       165825.59375000          -33.59999847          -13.19999981       159706.78125000           24.00000000          179.00000000           42.00000000          175.00000000           68.00000000           84.00000000         2402.00000000         1818.00000000        20120.00000000          -15.00000000          -15.00000000           28.07609940           24.00000000        12973.00000000 
       12050.17273952            1.00000000           12.20023394       128400.00000000        70749.60156250       164919.59375000          -25.60000038          -28.20000076       158863.71875000           28.00000000          166.00000000           43.00000000          152.00000000           66.00000000           67.00000000         2432.00000000         1684.00000000        20015.00000000          -15.00000000          -15.00000000           28.07609940           18.00000000        13009.00000000 
       12052.95439934            1.00000000           12.20307398       128531.00000000        70748.60156250       164803.59375000          -42.59999847          -30.20000076       158769.12500000           22.00000000          136.00000000           41.00000000          171.00000000           71.00000000           76.00000000         2321.00000000         1822.00000000        19954.00000000          -15.00000000          -15.00000000           28.07609940           25.00000000        12975.00000000 
